#N canvas 492 23 433 500 10;
#X floatatom 151 129 5 0 0 0 - - -;
#X floatatom 214 132 5 0 0 0 - - -;
#X obj 151 201 nbx 5 14 -1e+37 1e+37 0 0 empty empty empty 0 -8 0 10
-228856 -1 -1 0 256;
#X text 214 114 Hertz;
#X text 150 109 phon;
#X obj 86 40 phon2db;
#X text 232 164 argument (hz);
#X text 143 30 convert phons to dB \, it takes a Hz value (right inlet
or argument) and a value in Phons (left inlet), f 35;
#X obj 151 166 phon2db 100;
#X text 32 276 The unit measure of loudess (perceived intensity) is
phons. Two different frequencies at 60 decibel may have a different
loudness because the human hearing sensitivity varies with frequency.
, f 61;
#X text 32 250 Phons:;
#X text 32 374 It is useful to plot equal loudness curves which show
that variation for the average human ear. These can then be used to
adjust the sound gain.;
#N canvas 342 66 1063 613 equal-loudness-curves 0;
#X obj 4 5 cnv 15 1050 600 empty empty Robinson_&_Dadson(1956) 130
60 0 25 -228856 -41803 0;
#X obj 42 126 cnv 15 698 398 empty empty Phon-Curves 23 26 0 24 -146353
-1665 0;
#N canvas 0 22 450 300 (subpatch) 0;
#X array dbA-0 759 float 3;
#A 0 51.655 51.5538 51.4521 51.3498 51.2468 51.1432 51.039 50.9341
50.8287 50.7226 50.6158 50.5085 50.4005 50.2919 50.1827 50.0728 49.9623
49.8512 49.7394 49.6271 49.5141 49.4004 49.2862 49.1713 49.0558 48.9396
48.8229 48.7055 48.5874 48.4688 48.3495 48.2296 48.1091 47.988 47.8662
47.7438 47.6208 47.4972 47.3729 47.2481 47.1226 46.9965 46.8698 46.7425
46.6146 46.4861 46.357 46.2272 46.0969 45.966 45.8344 45.7023 45.5696
45.4363 45.3024 45.1679 45.0328 44.8971 44.7609 44.6241 44.4867 44.3487
44.2101 44.071 43.9314 43.7912 43.6504 43.509 43.3671 43.2247 43.0817
42.9382 42.7941 42.6495 42.5044 42.3587 42.2125 42.0658 41.9186 41.7708
41.6226 41.4738 41.3246 41.1748 41.0246 40.8739 40.7227 40.571 40.4188
40.2662 40.1131 39.9596 39.8056 39.6511 39.4962 39.3408 39.1851 39.0289
38.8722 38.7152 38.5577 38.3998 38.2415 38.0828 37.9237 37.7643 37.6044
37.4442 37.2836 37.1226 36.9613 36.7996 36.6376 36.4752 36.3125 36.1495
35.9861 35.8224 35.6584 35.4941 35.3295 35.1646 34.9995 34.834 34.6683
34.5023 34.336 34.1695 34.0027 33.8357 33.6684 33.501 33.3333 33.1654
32.9972 32.8289 32.6604 32.4917 32.3228 32.1537 31.9844 31.815 31.6455
31.4758 31.3059 31.1359 30.9658 30.7956 30.6253 30.4548 30.2843 30.1136
29.9429 29.7721 29.6012 29.4302 29.2592 29.0882 28.9171 28.7459 28.5747
28.4035 28.2323 28.0611 27.8899 27.7187 27.5474 27.3763 27.2051 27.034
26.8629 26.6918 26.5208 26.3499 26.179 26.0082 25.8375 25.6669 25.4963
25.3259 25.1556 24.9854 24.8153 24.6453 24.4754 24.3057 24.1362 23.9668
23.7976 23.6285 23.4596 23.2909 23.1223 22.954 22.7858 22.6179 22.4502
22.2827 22.1154 21.9483 21.7815 21.6149 21.4486 21.2825 21.1166 20.9511
20.7858 20.6208 20.456 20.2916 20.1275 19.9636 19.8001 19.6369 19.474
19.3114 19.1491 18.9872 18.8256 18.6644 18.5035 18.3429 18.1828 18.023
17.8635 17.7045 17.5458 17.3875 17.2296 17.0721 16.915 16.7583 16.602
16.4461 16.2907 16.1357 15.9811 15.827 15.6733 15.52 15.3672 15.2148
15.0629 14.9115 14.7606 14.6101 14.4601 14.3106 14.1615 14.013 13.865
13.7174 13.5704 13.4239 13.2779 13.1324 12.9874 12.843 12.6991 12.5558
12.413 12.2707 12.129 11.9879 11.8473 11.7072 11.5678 11.4289 11.2906
11.1529 11.0158 10.8793 10.7434 10.6081 10.4734 10.3393 10.2058 10.073
9.94079 9.80922 9.67829 9.548 9.41837 9.2894 9.16109 9.03346 8.90649
8.78019 8.65459 8.52968 8.40547 8.28196 8.15916 8.03708 7.91571 7.79509
7.67519 7.55602 7.43761 7.31996 7.20307 7.08693 6.97159 6.85702 6.74324
6.63026 6.51809 6.40673 6.29617 6.18646 6.07757 5.96953 5.86233 5.756
5.65052 5.54593 5.44222 5.3394 5.23748 5.13647 5.03637 4.9372 4.83897
4.74167 4.64533 4.54994 4.45554 4.3621 4.26966 4.17821 4.08777 3.99833
3.90993 3.82256 3.73623 3.65096 3.56674 3.48359 3.40152 3.32054 3.24066
3.16188 3.08422 3.00768 2.93226 2.858 2.78488 2.71292 2.64213 2.57251
2.50406 2.43682 2.37075 2.3059 2.24226 2.17984 2.11864 2.05867 1.99993
1.94244 1.88619 1.8312 1.77746 1.72498 1.67377 1.62384 1.57517 1.52777
1.48166 1.43683 1.39326 1.35099 1.30999 1.27027 1.23184 1.19469 1.15881
1.12421 1.09088 1.05882 1.02802 0.998483 0.970199 0.943163 0.91737
0.8928 0.869462 0.847338 0.826416 0.806693 0.788158 0.770794 0.754581
0.739518 0.725587 0.712779 0.701062 0.690424 0.680861 0.67234 0.664846
0.658359 0.652867 0.64834 0.644747 0.642082 0.640312 0.639407 0.639358
0.640117 0.641679 0.644002 0.647062 0.650826 0.655257 0.660347 0.666045
0.672325 0.679149 0.6865 0.694319 0.702592 0.711282 0.720327 0.729731
0.739438 0.749399 0.759577 0.769961 0.780488 0.79113 0.801847 0.812587
0.823309 0.834003 0.844583 0.855062 0.865357 0.875431 0.885267 0.894816
0.904023 0.912853 0.921274 0.929229 0.936701 0.943634 0.949982 0.955727
0.960809 0.965211 0.96886 0.971752 0.973828 0.975077 0.975423 0.974867
0.973351 0.970862 0.967342 0.962761 0.957112 0.950341 0.94241 0.933319
0.923018 0.911484 0.898691 0.884616 0.869219 0.852502 0.834431 0.814969
0.794128 0.771863 0.748164 0.723034 0.696415 0.668331 0.638762 0.607683
0.575094 0.54099 0.505346 0.468176 0.429468 0.389217 0.347436 0.304092
0.259217 0.212802 0.164841 0.11535 0.0643365 0.011802 -0.0422483 -0.097794
-0.154822 -0.213331 -0.273308 -0.334722 -0.397568 -0.461828 -0.52748
-0.594508 -0.662885 -0.732592 -0.803613 -0.875914 -0.949468 -1.02425
-1.10024 -1.17741 -1.25571 -1.33512 -1.41564 -1.49717 -1.57975 -1.6633
-1.74779 -1.83321 -1.91949 -2.00662 -2.09455 -2.18322 -2.27263 -2.36272
-2.45344 -2.54477 -2.63665 -2.72905 -2.82191 -2.91521 -3.00887 -3.10287
-3.19716 -3.29169 -3.3864 -3.48126 -3.5762 -3.67118 -3.76614 -3.86104
-3.95581 -4.0504 -4.14477 -4.23883 -4.33254 -4.42583 -4.51864 -4.61091
-4.70255 -4.79353 -4.88374 -4.97314 -5.06162 -5.14914 -5.23558 -5.32089
-5.40497 -5.48773 -5.56908 -5.64893 -5.72717 -5.8037 -5.87842 -5.95122
-6.02197 -6.09058 -6.15691 -6.22084 -6.28225 -6.34099 -6.39693 -6.44993
-6.49984 -6.5465 -6.58978 -6.62949 -6.6655 -6.69763 -6.72572 -6.74956
-6.76902 -6.78389 -6.79401 -6.79919 -6.79923 -6.79396 -6.78319 -6.76671
-6.74436 -6.71595 -6.68127 -6.64013 -6.59239 -6.53783 -6.47629 -6.40762
-6.33161 -6.24812 -6.15701 -6.0581 -5.95129 -5.83643 -5.71342 -5.58213
-5.44248 -5.29439 -5.1378 -4.97265 -4.79888 -4.61651 -4.42551 -4.22589
-4.0177 -3.80099 -3.57584 -3.34234 -3.10058 -2.85073 -2.59293 -2.3274
-2.05433 -1.77391 -1.48647 -1.19221 -0.891541 -0.584695 -0.272084 0.0459052
0.368915 0.696455 1.02811 1.36339 1.70176 2.04275 2.3858 2.73035 3.0758
3.42156 3.76699 4.11152 4.45443 4.79513 5.13293 5.46715 5.79717 6.12224
6.44172 6.75493 7.06122 7.35992 7.65034 7.93189 8.20389 8.46576 8.71695
8.95685 9.18494 9.40065 9.60358 9.79324 9.96922 10.1311 10.2787 10.4115
10.5294 10.6322 10.7197 10.7918 10.8484 10.8897 10.9155 10.9262 10.9218
10.9025 10.8688 10.821 10.7596 10.685 10.5979 10.499 10.389 10.2688
10.1393 10.0014 9.85645 9.70547 9.54982 9.39087 9.23013 9.0692 8.90976
8.75362 8.60271 8.45904 8.32466 8.20176 8.0926 7.99946 7.92468 7.8706
7.83954 7.83371 7.8553 7.90629 7.98842 8.10321 8.25181 8.43503 8.65315
8.90601 9.19289 9.51253 9.86298 10.2418 10.6462 11.0727 11.5174 11.9765
12.4456 12.9205 13.3972 13.8716 14.3401 14.7997 15.2476 15.6816 16.1001
16.502 16.8869 17.2546 17.6056 17.9407 18.2611 18.5682 18.8637 19.1495
19.4274 19.6996 19.9681 20.235 20.5025 20.7726 21.0475 21.3289 21.6191
21.9197 22.2327 22.5598 22.9029 23.2637 23.6438 24.045 24.4688 24.917
25.3911 26.4242;
#X array dbA-20 759 float 5;
#A 0 63.0693 62.9728 62.8757 62.7781 62.6798 62.581 62.4816 62.3817
62.2811 62.18 62.0783 61.976 61.8732 61.7698 61.6658 61.5612 61.456
61.3503 61.244 61.1371 61.0297 60.9216 60.813 60.7039 60.5941 60.4838
60.373 60.2615 60.1495 60.0369 59.9238 59.8101 59.6959 59.581 59.4656
59.3497 59.2332 59.1162 58.9986 58.8804 58.7617 58.6425 58.5227 58.4024
58.2815 58.1601 58.0381 57.9157 57.7927 57.6691 57.5451 57.4205 57.2954
57.1698 57.0436 56.917 56.7898 56.6621 56.534 56.4053 56.2762 56.1465
56.0163 55.8857 55.7546 55.623 55.491 55.3584 55.2254 55.0919 54.958
54.8236 54.6888 54.5535 54.4178 54.2816 54.145 54.008 53.8706 53.7327
53.5944 53.4557 53.3166 53.1771 53.0372 52.8969 52.7562 52.6151 52.4737
52.3319 52.1897 52.0471 51.9042 51.761 51.6174 51.4734 51.3292 51.1846
51.0397 50.8944 50.7489 50.603 50.4569 50.3104 50.1637 50.0167 49.8694
49.7219 49.5741 49.426 49.2777 49.1291 48.9803 48.8313 48.682 48.5325
48.3828 48.2329 48.0828 47.9326 47.7821 47.6314 47.4806 47.3296 47.1785
47.0272 46.8757 46.7242 46.5724 46.4206 46.2686 46.1166 45.9644 45.8121
45.6598 45.5073 45.3548 45.2022 45.0496 44.8969 44.7441 44.5913 44.4385
44.2856 44.1328 43.9799 43.827 43.6741 43.5212 43.3683 43.2155 43.0627
42.9099 42.7571 42.6044 42.4518 42.2992 42.1467 41.9943 41.8419 41.6896
41.5375 41.3854 41.2335 41.0817 40.9299 40.7784 40.6269 40.4756 40.3245
40.1735 40.0227 39.8721 39.7216 39.5713 39.4212 39.2713 39.1216 38.9721
38.8228 38.6738 38.5249 38.3763 38.228 38.0799 37.932 37.7844 37.6371
37.49 37.3432 37.1967 37.0505 36.9046 36.7589 36.6136 36.4686 36.3239
36.1795 36.0354 35.8917 35.7483 35.6053 35.4626 35.3202 35.1782 35.0366
34.8953 34.7544 34.6139 34.4737 34.334 34.1946 34.0556 33.9171 33.7789
33.6411 33.5038 33.3668 33.2303 33.0942 32.9586 32.8233 32.6885 32.5542
32.4203 32.2868 32.1538 32.0212 31.8892 31.7575 31.6264 31.4957 31.3654
31.2357 31.1064 30.9776 30.8493 30.7215 30.5942 30.4674 30.3411 30.2152
30.0899 29.9651 29.8408 29.717 29.5937 29.471 29.3487 29.227 29.1058
28.9851 28.865 28.7454 28.6263 28.5078 28.3898 28.2723 28.1554 28.0391
27.9233 27.808 27.6933 27.5791 27.4655 27.3525 27.24 27.1281 27.0168
26.906 26.7958 26.6862 26.5771 26.4686 26.3607 26.2534 26.1466 26.0405
25.9349 25.83 25.7256 25.6218 25.5186 25.416 25.314 25.2127 25.1119
25.0117 24.9122 24.8133 24.715 24.6173 24.5202 24.4238 24.328 24.2329
24.1384 24.0445 23.9513 23.8587 23.7668 23.6755 23.585 23.495 23.4058
23.3172 23.2294 23.1422 23.0557 22.9699 22.8848 22.8004 22.7168 22.6338
22.5516 22.4701 22.3894 22.3094 22.2302 22.1517 22.0741 21.9972 21.921
21.8457 21.7712 21.6975 21.6246 21.5526 21.4813 21.411 21.3415 21.2728
21.2051 21.1382 21.0722 21.0072 20.943 20.8798 20.8176 20.7563 20.6959
20.6366 20.5782 20.5208 20.4644 20.4091 20.3548 20.3015 20.2494 20.1983
20.1482 20.0993 20.0515 20.0048 19.9593 19.9149 19.8717 19.8296 19.7888
19.7491 19.7107 19.6735 19.6375 19.6028 19.5694 19.5372 19.5063 19.4767
19.4484 19.4214 19.3958 19.3715 19.3485 19.3269 19.3067 19.2878 19.2703
19.2542 19.2395 19.2262 19.2143 19.2038 19.1947 19.187 19.1807 19.1758
19.1724 19.1703 19.1697 19.1705 19.1726 19.1762 19.1812 19.1875 19.1953
19.2044 19.2149 19.2267 19.2398 19.2543 19.2701 19.2871 19.3055 19.3251
19.3459 19.368 19.3912 19.4156 19.4411 19.4678 19.4956 19.5244 19.5542
19.585 19.6168 19.6495 19.6832 19.7176 19.7529 19.789 19.8258 19.8633
19.9014 19.9401 19.9794 20.0193 20.0596 20.1003 20.1413 20.1827 20.2243
20.2662 20.3082 20.3503 20.3925 20.4347 20.4767 20.5187 20.5605 20.6021
20.6433 20.6842 20.7248 20.7648 20.8043 20.8432 20.8815 20.919 20.9558
20.9918 21.0269 21.061 21.0942 21.1263 21.1573 21.1871 21.2157 21.2431
21.2691 21.2938 21.317 21.3387 21.3589 21.3776 21.3946 21.41 21.4237
21.4356 21.4458 21.4542 21.4606 21.4652 21.4679 21.4687 21.4674 21.4642
21.4589 21.4515 21.4421 21.4306 21.417 21.4013 21.3835 21.3635 21.3414
21.3171 21.2906 21.2621 21.2313 21.1984 21.1634 21.1262 21.0869 21.0455
21.0021 20.9565 20.9089 20.8592 20.8076 20.7539 20.6983 20.6407 20.5813
20.52 20.4569 20.3919 20.3252 20.2569 20.1868 20.1151 20.0418 19.967
19.8906 19.8129 19.7337 19.6532 19.5714 19.4884 19.4041 19.3188 19.2323
19.1448 19.0564 18.967 18.8768 18.7858 18.6941 18.6016 18.5086 18.415
18.3209 18.2263 18.1313 18.0361 17.9405 17.8447 17.7488 17.6528 17.5567
17.4607 17.3647 17.2689 17.1733 17.0779 16.9829 16.8882 16.7939 16.7002
16.607 16.5143 16.4224 16.3312 16.2408 16.1512 16.0625 15.9748 15.8882
15.8026 15.7183 15.6351 15.5533 15.4728 15.3938 15.3164 15.2406 15.1664
15.0941 15.0236 14.9551 14.8886 14.8243 14.7623 14.7026 14.6454 14.5908
14.539 14.49 14.4439 14.401 14.3614 14.3252 14.2925 14.2636 14.2385
14.2175 14.2008 14.1884 14.1807 14.1778 14.1798 14.1871 14.1997 14.218
14.242 14.2721 14.3085 14.3513 14.4007 14.4571 14.5206 14.5915 14.6699
14.756 14.8501 14.9524 15.0631 15.1823 15.3102 15.447 15.5929 15.748
15.9125 16.0863 16.2698 16.4628 16.6656 16.878 17.1003 17.3322 17.5739
17.8253 18.0862 18.3565 18.6362 18.925 19.2228 19.5292 19.844 20.167
20.4977 20.8358 21.1808 21.5324 21.8899 22.253 22.621 22.9934 23.3696
23.7487 24.1303 24.5135 24.8978 25.2821 25.6658 26.048 26.4279 26.8048
27.1777 27.5457 27.9079 28.2636 28.6118 28.9516 29.2823 29.6028 29.9124
30.2104 30.4958 30.7679 31.026 31.2694 31.4974 31.7094 31.9047 32.083
32.2436 32.3861 32.5103 32.6156 32.702 32.7692 32.817 32.8454 32.8545
32.8442 32.8147 32.7663 32.6992 32.6138 32.5106 32.39 32.2527 32.0993
31.9306 31.7474 31.5507 31.3415 31.121 30.8902 30.6506 30.4035 30.1505
29.8932 29.6335 29.3731 29.1143 28.859 28.6097 28.369 28.1393 27.9235
27.7246 27.5456 27.3897 27.26 27.1598 27.0922 27.0602 27.0664 27.1132
27.2024 27.3351 27.5117 27.7316 27.9932 28.2937 28.6298 28.9966 29.3888
29.8003 30.2248 30.6557 31.0868 31.5123 31.9272 32.3273 32.7093 33.0711
33.4114 33.7299 34.0272 34.3044 34.5634 34.8061 35.0351 35.253 35.4625
35.6661 35.8667 36.0668 36.2688 36.475 36.6876 36.9088 37.1404 37.3842
37.6421 37.9154 38.2059 38.515 38.8441 39.1945 39.5677 39.965 40.3877
40.8372 41.3148 41.8219 42.9307;
#X array dbA-40 759 float 5;
#A 0 74.8762 74.7886 74.7006 74.6121 74.523 74.4334 74.3434 74.2528
74.1617 74.0701 73.978 73.8853 73.7922 73.6986 73.6044 73.5098 73.4146
73.319 73.2228 73.1261 73.029 72.9313 72.8331 72.7344 72.6353 72.5356
72.4354 72.3347 72.2336 72.1319 72.0298 71.9272 71.8241 71.7205 71.6164
71.5118 71.4067 71.3012 71.1952 71.0887 70.9818 70.8744 70.7665 70.6581
70.5493 70.44 70.3303 70.2201 70.1095 69.9984 69.8868 69.7748 69.6624
69.5495 69.4362 69.3225 69.2083 69.0938 68.9787 68.8633 68.7475 68.6312
68.5145 68.3975 68.28 68.1621 68.0439 67.9252 67.8062 67.6868 67.567
67.4468 67.3263 67.2054 67.0841 66.9625 66.8405 66.7182 66.5956 66.4726
66.3493 66.2256 66.1016 65.9773 65.8527 65.7278 65.6026 65.4771 65.3513
65.2252 65.0988 64.9722 64.8452 64.718 64.5906 64.4629 64.3349 64.2067
64.0783 63.9496 63.8207 63.6916 63.5623 63.4328 63.303 63.1731 63.0429
62.9126 62.7821 62.6515 62.5206 62.3896 62.2585 62.1272 61.9957 61.8642
61.7325 61.6006 61.4687 61.3366 61.2045 61.0722 60.9399 60.8074 60.6749
60.5424 60.4097 60.277 60.1443 60.0115 59.8786 59.7457 59.6128 59.4799
59.347 59.2141 59.0811 58.9482 58.8153 58.6824 58.5495 58.4167 58.2839
58.1511 58.0184 57.8858 57.7532 57.6207 57.4883 57.356 57.2237 57.0916
56.9595 56.8276 56.6958 56.5641 56.4326 56.3011 56.1699 56.0387 55.9077
55.7769 55.6463 55.5158 55.3855 55.2554 55.1255 54.9958 54.8663 54.7369
54.6079 54.479 54.3503 54.2219 54.0938 53.9658 53.8381 53.7107 53.5836
53.4566 53.33 53.2037 53.0776 52.9518 52.8263 52.7011 52.5762 52.4516
52.3274 52.2034 52.0798 51.9565 51.8335 51.7109 51.5886 51.4666 51.345
51.2238 51.1029 50.9824 50.8622 50.7425 50.6231 50.504 50.3854 50.2671
50.1493 50.0318 49.9148 49.7981 49.6818 49.566 49.4506 49.3356 49.221
49.1068 48.9931 48.8798 48.7669 48.6545 48.5425 48.4309 48.3198 48.2091
48.0989 47.9892 47.8799 47.7711 47.6627 47.5548 47.4473 47.3404 47.2339
47.1278 47.0223 46.9172 46.8126 46.7085 46.6049 46.5017 46.3991 46.2969
46.1952 46.0941 45.9934 45.8932 45.7935 45.6943 45.5956 45.4974 45.3997
45.3025 45.2059 45.1097 45.014 44.9189 44.8243 44.7301 44.6365 44.5434
44.4508 44.3588 44.2672 44.1762 44.0857 43.9957 43.9062 43.8172 43.7288
43.6409 43.5535 43.4667 43.3803 43.2945 43.2093 43.1245 43.0403 42.9566
42.8735 42.7909 42.7088 42.6273 42.5462 42.4658 42.3858 42.3065 42.2276
42.1493 42.0716 41.9944 41.9177 41.8416 41.7661 41.6911 41.6166 41.5427
41.4694 41.3967 41.3245 41.2529 41.1818 41.1113 41.0414 40.9721 40.9034
40.8353 40.7677 40.7008 40.6344 40.5687 40.5035 40.439 40.3751 40.3118
40.2491 40.1871 40.1257 40.065 40.0049 39.9455 39.8867 39.8286 39.7712
39.7145 39.6585 39.6032 39.5485 39.4947 39.4415 39.3891 39.3374 39.2865
39.2363 39.1869 39.1383 39.0905 39.0435 38.9974 38.952 38.9075 38.8639
38.8211 38.7792 38.7382 38.6981 38.6589 38.6207 38.5834 38.5471 38.5117
38.4773 38.444 38.4116 38.3803 38.3501 38.3208 38.2927 38.2657 38.2398
38.215 38.1913 38.1688 38.1474 38.1273 38.1083 38.0906 38.0741 38.0588
38.0448 38.032 38.0205 38.0104 38.0015 37.994 37.9878 37.9829 37.9794
37.9773 37.9766 37.9772 37.9792 37.9827 37.9875 37.9938 38.0015 38.0106
38.0212 38.0332 38.0466 38.0615 38.0778 38.0956 38.1148 38.1354 38.1575
38.181 38.2058 38.2321 38.2598 38.2889 38.3194 38.3512 38.3844 38.4189
38.4547 38.4917 38.5301 38.5697 38.6105 38.6525 38.6957 38.74 38.7854
38.8318 38.8793 38.9278 38.9773 39.0277 39.079 39.1311 39.184 39.2376
39.2919 39.3469 39.4025 39.4586 39.5153 39.5723 39.6298 39.6876 39.7456
39.8039 39.8623 39.9208 39.9793 40.0378 40.0961 40.1543 40.2123 40.27
40.3273 40.3841 40.4405 40.4963 40.5514 40.6058 40.6595 40.7123 40.7642
40.8152 40.865 40.9138 40.9614 41.0077 41.0527 41.0964 41.1386 41.1793
41.2185 41.256 41.2918 41.326 41.3583 41.3888 41.4173 41.444 41.4686
41.4912 41.5118 41.5302 41.5464 41.5604 41.5722 41.5817 41.5889 41.5938
41.5963 41.5965 41.5942 41.5895 41.5824 41.5729 41.5609 41.5464 41.5295
41.5101 41.4882 41.4639 41.4371 41.4079 41.3762 41.3422 41.3057 41.2668
41.2256 41.1821 41.1362 41.0881 41.0378 40.9852 40.9305 40.8736 40.8147
40.7537 40.6907 40.6258 40.559 40.4903 40.4198 40.3476 40.2737 40.1982
40.1211 40.0426 39.9625 39.8811 39.7984 39.7144 39.6292 39.5429 39.4556
39.3672 39.2779 39.1878 39.0968 39.0052 38.9128 38.8199 38.7265 38.6326
38.5383 38.4437 38.3488 38.2537 38.1585 38.0633 37.968 37.8727 37.7776
37.6827 37.588 37.4936 37.3996 37.3059 37.2128 37.1201 37.028 36.9366
36.8459 36.7558 36.6666 36.5782 36.4907 36.4041 36.3185 36.234 36.1505
36.0682 35.9871 35.9072 35.8286 35.7513 35.6754 35.6009 35.528 35.4566
35.3868 35.3187 35.2523 35.1877 35.125 35.0642 35.0053 34.9486 34.894
34.8417 34.7917 34.7441 34.699 34.6565 34.6168 34.5798 34.5459 34.5149
34.4872 34.4628 34.4419 34.4245 34.411 34.4013 34.3958 34.3944 34.3975
34.4052 34.4177 34.4351 34.4577 34.4857 34.5192 34.5585 34.6037 34.6551
34.7129 34.7773 34.8485 34.9267 35.0121 35.105 35.2054 35.3136 35.4298
35.5541 35.6867 35.8279 35.9775 36.1359 36.3032 36.4793 36.6644 36.8586
37.0618 37.274 37.4953 37.7256 37.9647 38.2126 38.4692 38.7342 39.0074
39.2887 39.5776 39.874 40.1774 40.4874 40.8036 41.1255 41.4526 41.7845
42.1203 42.4597 42.8019 43.1462 43.4918 43.8382 44.1845 44.5298 44.8734
45.2145 45.5521 45.8855 46.2137 46.5359 46.8512 47.1588 47.4576 47.747
48.0261 48.2941 48.5501 48.7934 49.0232 49.2388 49.4397 49.6251 49.7945
49.9474 50.0832 50.2016 50.3022 50.3847 50.4488 50.4944 50.5214 50.5297
50.5193 50.4903 50.4429 50.3773 50.2937 50.1925 50.0741 49.9391 49.7879
49.6211 49.4395 49.2437 49.0346 48.813 48.5799 48.3363 48.0831 47.8217
47.5531 47.2788 47.0002 46.7187 46.4361 46.1541 45.8748 45.6003 45.333
45.0756 44.8308 44.6019 44.3924 44.2061 44.0469 43.9192 43.8274 43.7759
43.7687 43.8097 43.9016 44.0461 44.2434 44.4918 44.7874 45.1244 45.4949
45.8896 46.2983 46.7103 47.1161 47.5069 47.876 48.2186 48.532 48.8153
49.0694 49.2965 49.4998 49.6827 49.8493 50.0035 50.1492 50.29 50.4295
50.5706 50.7161 50.8685 51.0299 51.2023 51.3874 51.5868 51.8018 52.0338
52.2838 52.5531 52.8426 53.1533 53.4864 53.8428 54.2236 54.6297 55.0622
55.5223 56.011 56.5297 57.6622;
#X array dbA-60 759 float 5;
#A 0 87.0584 86.9825 86.9062 86.8294 86.7522 86.6746 86.5965 86.518
86.4391 86.3597 86.2798 86.1996 86.1189 86.0377 85.9562 85.8741 85.7917
85.7088 85.6255 85.5417 85.4576 85.3729 85.2879 85.2024 85.1165 85.0302
84.9434 84.8563 84.7687 84.6806 84.5922 84.5033 84.414 84.3243 84.2342
84.1437 84.0527 83.9614 83.8696 83.7775 83.6849 83.5919 83.4986 83.4048
83.3106 83.2161 83.1211 83.0258 82.9301 82.834 82.7375 82.6406 82.5434
82.4458 82.3478 82.2494 82.1507 82.0516 81.9522 81.8524 81.7522 81.6517
